TRANSMISSION%TAU_TOTAL = (
  0.586744       0.218096       0.617577E-001  0.564925E-002  0.563128E-005  0.136595E-007  0.516482E-008  0.280477       0.659699E-003  0.142782E-007
  0.587085E-015  0.892597       0.892631       0.717037       0.873854       0.873862       0.632207       0.632191       0.138256E-007  0.166422E-007
  0.103625E-007  0.529775       0.158080       0.344889E-001  0.202594E-002  0.510744E-006  0.256707E-008  0.176355E-008  0.266090       0.448869E-003
  0.608176E-008  0.585699E-016  0.886963       0.886997       0.717900       0.860396       0.860405       0.616686       0.616670       0.213960E-008
  0.228780E-008  0.270458E-008  0.530723       0.154652       0.350691E-001  0.211461E-002  0.501163E-006  0.203121E-007  0.151591E-007  0.610566     
  0.468245E-001  0.358961E-003  0.162135E-006  0.944309       0.944322       0.880479       0.899419       0.899428       0.798771       0.798769     
  0.783438E-008  0.884412E-008  0.139748E-007  0.473451       0.113935       0.193740E-001  0.727625E-003  0.342826E-007  0.198303E-009  0.272101E-009
  0.282488       0.557886E-003  0.744900E-008  0.164765E-015  0.889230       0.889261       0.732637       0.851540       0.851551       0.621645     
  0.621631       0.170490E-009  0.167323E-009  0.271547E-009  0.666805       0.306494       0.118717       0.189476E-001  0.834198E-004  0.442425E-005
  0.364467E-005  0.860780       0.401010       0.848197E-001  0.643007E-002  0.975301       0.975305       0.953703       0.942335       0.942341     
  0.910202       0.910204       0.177145E-005  0.197176E-005  0.246418E-005  0.411317       0.716413E-001  0.871779E-002  0.169244E-003  0.587159E-009
  0.325153E-011  0.197932E-011  0.339204       0.130811E-002  0.505404E-007  0.360565E-014  0.894178       0.894206       0.755270       0.844375     
  0.844387       0.648845       0.648836       0.206425E-011  0.255568E-011  0.538263E-011
 )
TRANSMISSION%TAU_LEVELS = (
   1.00000        1.00000        1.00000        1.00000        1.00000        1.00000        1.00000        1.00000        1.00000        1.00000     
   1.00000        1.00000        1.00000        1.00000        1.00000        1.00000        1.00000        1.00000        1.00000        1.00000     
   1.00000        1.00000        1.00000        1.00000        1.00000        1.00000        1.00000        1.00000        1.00000        1.00000     
   1.00000        1.00000        1.00000        1.00000        1.00000        1.00000        1.00000        1.00000        1.00000        1.00000     
   1.00000        1.00000        1.00000        1.00000        1.00000        1.00000        1.00000        1.00000        1.00000        1.00000     
   1.00000        1.00000        1.00000        1.00000        1.00000        1.00000        1.00000        1.00000        1.00000        1.00000     
   1.00000        1.00000        1.00000        1.00000        1.00000        1.00000        1.00000        1.00000        1.00000        1.00000     
   1.00000        1.00000        1.00000        1.00000        1.00000        1.00000        1.00000        1.00000        1.00000        1.00000     
   1.00000        1.00000        1.00000        1.00000        1.00000        1.00000        1.00000        1.00000        1.00000        1.00000     
   1.00000        1.00000        1.00000        1.00000        1.00000        1.00000        1.00000        1.00000        1.00000        1.00000     
   1.00000        1.00000        1.00000        1.00000        1.00000        1.00000        1.00000        1.00000        1.00000        1.00000     
   1.00000        1.00000        1.00000        1.00000        1.00000        1.00000        1.00000        1.00000        1.00000        1.00000     
   1.00000        1.00000        1.00000        1.00000        1.00000        1.00000     
 
   1.00000        1.00000        1.00000        1.00000        1.00000        1.00000        1.00000        1.00000        1.00000        1.00000     
   1.00000        1.00000        1.00000        1.00000        1.00000        1.00000        1.00000        1.00000       0.999926       0.999991     
  0.999999        1.00000        1.00000        1.00000        1.00000        1.00000        1.00000        1.00000        1.00000        1.00000     
   1.00000        1.00000        1.00000        1.00000        1.00000        1.00000        1.00000        1.00000        1.00000       0.999907     
  0.999989       0.999999        1.00000        1.00000        1.00000        1.00000        1.00000        1.00000        1.00000        1.00000     
   1.00000        1.00000        1.00000        1.00000        1.00000        1.00000        1.00000        1.00000        1.00000        1.00000     
  0.999942       0.999993       0.999999        1.00000        1.00000        1.00000        1.00000        1.00000        1.00000        1.00000     
   1.00000        1.00000        1.00000        1.00000        1.00000        1.00000        1.00000        1.00000        1.00000        1.00000     
   1.00000       0.999892       0.999987       0.999998        1.00000        1.00000        1.00000        1.00000        1.00000        1.00000     
   1.00000        1.00000        1.00000        1.00000        1.00000        1.00000        1.00000        1.00000        1.00000        1.00000     
   1.00000        1.00000       0.999964       0.999996       0.999999        1.00000        1.00000        1.00000        1.00000        1.00000     
   1.00000        1.00000        1.00000        1.00000        1.00000        1.00000        1.00000        1.00000        1.00000        1.00000     
   1.00000        1.00000        1.00000       0.999910       0.999989       0.999999     
 
   1.00000        1.00000       0.999998        1.00000        1.00000        1.00000       0.999999        1.00000        1.00000        1.00000     
   1.00000        1.00000        1.00000        1.00000        1.00000        1.00000        1.00000        1.00000       0.999598       0.999952     
  0.999994        1.00000        1.00000       0.999998        1.00000        1.00000        1.00000       0.999999        1.00000        1.00000     
   1.00000        1.00000        1.00000        1.00000        1.00000        1.00000        1.00000        1.00000        1.00000       0.999508     
  0.999942       0.999993        1.00000        1.00000       0.999997        1.00000        1.00000        1.00000       0.999999        1.00000     
   1.00000        1.00000        1.00000        1.00000        1.00000        1.00000        1.00000        1.00000        1.00000        1.00000     
  0.999679       0.999962       0.999996        1.00000        1.00000       0.999998        1.00000        1.00000        1.00000       0.999999     
   1.00000        1.00000        1.00000        1.00000        1.00000        1.00000        1.00000        1.00000        1.00000        1.00000     
   1.00000       0.999427       0.999932       0.999992        1.00000        1.00000       0.999997        1.00000        1.00000        1.00000     
   1.00000        1.00000        1.00000        1.00000        1.00000        1.00000        1.00000        1.00000        1.00000        1.00000     
   1.00000        1.00000       0.999802       0.999977       0.999997        1.00000        1.00000       0.999997        1.00000        1.00000     
   1.00000       0.999999        1.00000        1.00000        1.00000        1.00000        1.00000        1.00000        1.00000        1.00000     
   1.00000        1.00000        1.00000       0.999498       0.999940       0.999993     
 
   1.00000        1.00000       0.999988        1.00000        1.00000       0.999999       0.999997        1.00000        1.00000        1.00000     
   1.00000        1.00000        1.00000        1.00000        1.00000        1.00000        1.00000        1.00000       0.998408       0.999811     
  0.999978        1.00000        1.00000       0.999989        1.00000        1.00000       0.999999       0.999996        1.00000        1.00000     
   1.00000        1.00000        1.00000        1.00000        1.00000        1.00000        1.00000        1.00000        1.00000       0.998122     
  0.999777       0.999974        1.00000        1.00000       0.999985        1.00000        1.00000       0.999999       0.999997        1.00000     
   1.00000        1.00000        1.00000        1.00000        1.00000        1.00000        1.00000        1.00000        1.00000        1.00000     
  0.998659       0.999841       0.999981        1.00000        1.00000       0.999988        1.00000        1.00000       0.999999       0.999995     
   1.00000        1.00000        1.00000        1.00000        1.00000        1.00000        1.00000        1.00000        1.00000        1.00000     
   1.00000       0.997827       0.999742       0.999970        1.00000        1.00000       0.999987        1.00000        1.00000        1.00000     
  0.999998        1.00000        1.00000        1.00000        1.00000        1.00000        1.00000        1.00000        1.00000        1.00000     
   1.00000        1.00000       0.999162       0.999901       0.999988        1.00000        1.00000       0.999982        1.00000        1.00000     
  0.999999       0.999996        1.00000        1.00000        1.00000        1.00000        1.00000        1.00000        1.00000        1.00000     
   1.00000        1.00000        1.00000       0.997913       0.999752       0.999971     
 
   1.00000        1.00000       0.999947        1.00000       0.999999       0.999997       0.999989        1.00000        1.00000        1.00000     
   1.00000        1.00000        1.00000        1.00000        1.00000        1.00000        1.00000        1.00000       0.994664       0.999365     
  0.999926        1.00000        1.00000       0.999945        1.00000       0.999999       0.999997       0.999988        1.00000        1.00000     
   1.00000       0.999999        1.00000        1.00000        1.00000        1.00000        1.00000        1.00000        1.00000       0.993957     
  0.999281       0.999916        1.00000        1.00000       0.999938        1.00000       0.999999       0.999997       0.999991        1.00000     
   1.00000        1.00000        1.00000        1.00000        1.00000        1.00000        1.00000        1.00000        1.00000        1.00000     
  0.995252       0.999435       0.999934        1.00000        1.00000       0.999942        1.00000       0.999999       0.999996       0.999986     
   1.00000        1.00000        1.00000       0.999999        1.00000        1.00000        1.00000        1.00000        1.00000        1.00000     
   1.00000       0.993072       0.999175       0.999903        1.00000        1.00000       0.999950        1.00000       0.999999       0.999998     
  0.999994        1.00000        1.00000        1.00000        1.00000        1.00000        1.00000        1.00000        1.00000        1.00000     
   1.00000        1.00000       0.996896       0.999631       0.999957        1.00000        1.00000       0.999925        1.00000       0.999998     
  0.999996       0.999985        1.00000        1.00000        1.00000       0.999999        1.00000        1.00000        1.00000        1.00000     
   1.00000        1.00000        1.00000       0.992741       0.999136       0.999899     
 
   1.00000        1.00000       0.999820       0.999999       0.999996       0.999991       0.999968        1.00000        1.00000        1.00000     
  0.999998        1.00000        1.00000       0.999999        1.00000        1.00000        1.00000        1.00000       0.984242       0.998114     
  0.999780        1.00000        1.00000       0.999805       0.999999       0.999996       0.999990       0.999965        1.00000        1.00000     
   1.00000       0.999998        1.00000        1.00000       0.999999        1.00000        1.00000        1.00000        1.00000       0.982624     
  0.997919       0.999757        1.00000        1.00000       0.999803       0.999999       0.999996       0.999992       0.999971        1.00000     
   1.00000        1.00000       0.999999        1.00000        1.00000       0.999999        1.00000        1.00000        1.00000        1.00000     
  0.985197       0.998229       0.999794        1.00000        1.00000       0.999786       0.999998       0.999995       0.999989       0.999961     
   1.00000        1.00000        1.00000       0.999998        1.00000        1.00000       0.999999        1.00000        1.00000        1.00000     
   1.00000       0.980488       0.997660       0.999727        1.00000        1.00000       0.999849       0.999999       0.999997       0.999994     
  0.999980        1.00000        1.00000        1.00000       0.999999        1.00000        1.00000       0.999999        1.00000        1.00000     
   1.00000        1.00000       0.989883       0.998793       0.999859        1.00000        1.00000       0.999756       0.999998       0.999994     
  0.999988       0.999956        1.00000        1.00000        1.00000       0.999998        1.00000        1.00000       0.999999        1.00000     
   1.00000        1.00000        1.00000       0.977969       0.997355       0.999691     
 
  0.999998       0.999999       0.999537       0.999996       0.999988       0.999975       0.999915        1.00000        1.00000        1.00000     
  0.999994        1.00000        1.00000       0.999998        1.00000        1.00000        1.00000        1.00000       0.957698       0.994854     
  0.999399       0.999998       0.999999       0.999489       0.999996       0.999986       0.999973       0.999907        1.00000        1.00000     
   1.00000       0.999993        1.00000        1.00000       0.999998        1.00000        1.00000        1.00000        1.00000       0.954144     
  0.994412       0.999348       0.999998       0.999999       0.999519       0.999996       0.999988       0.999975       0.999917        1.00000     
   1.00000        1.00000       0.999995        1.00000        1.00000       0.999998        1.00000        1.00000        1.00000        1.00000     
  0.958691       0.994977       0.999414       0.999998       0.999999       0.999423       0.999995       0.999985       0.999970       0.999899     
   1.00000        1.00000        1.00000       0.999993        1.00000        1.00000       0.999998        1.00000        1.00000        1.00000     
   1.00000       0.949791       0.993870       0.999284       0.999999        1.00000       0.999645       0.999997       0.999991       0.999983     
  0.999942        1.00000        1.00000        1.00000       0.999997        1.00000        1.00000       0.999999        1.00000        1.00000     
   1.00000        1.00000       0.970709       0.996459       0.999587       0.999998       0.999999       0.999383       0.999994       0.999983     
  0.999965       0.999879        1.00000        1.00000        1.00000       0.999991        1.00000        1.00000       0.999998        1.00000     
   1.00000        1.00000        1.00000       0.940582       0.992709       0.999148     
 
  0.999995       0.999998       0.999043       0.999988       0.999966       0.999934       0.999782        1.00000        1.00000        1.00000     
  0.999982        1.00000        1.00000       0.999996        1.00000        1.00000        1.00000        1.00000       0.895828       0.986807     
  0.998454       0.999994       0.999998       0.998930       0.999987       0.999963       0.999929       0.999768        1.00000        1.00000     
   1.00000       0.999982        1.00000        1.00000       0.999997        1.00000        1.00000        1.00000        1.00000       0.888932     
  0.985889       0.998346       0.999995       0.999998       0.999032       0.999988       0.999966       0.999934       0.999783        1.00000     
   1.00000        1.00000       0.999983        1.00000        1.00000       0.999997        1.00000        1.00000        1.00000        1.00000     
  0.896087       0.986839       0.998458       0.999993       0.999998       0.998786       0.999986       0.999959       0.999922       0.999748     
   1.00000        1.00000        1.00000       0.999981        1.00000        1.00000       0.999997        1.00000        1.00000        1.00000     
   1.00000       0.879822       0.984665       0.998202       0.999997       0.999999       0.999315       0.999992       0.999975       0.999952     
  0.999840        1.00000        1.00000        1.00000       0.999988        1.00000        1.00000       0.999998        1.00000        1.00000     
   1.00000        1.00000       0.922568       0.990319       0.998867       0.999993       0.999998       0.998721       0.999984       0.999952     
  0.999908       0.999694        1.00000        1.00000        1.00000       0.999975        1.00000        1.00000       0.999996        1.00000     
   1.00000        1.00000        1.00000       0.856955       0.981508       0.997827     
 
  0.999988       0.999996       0.998277       0.999970       0.999913       0.999837       0.999471        1.00000        1.00000        1.00000     
  0.999956        1.00000        1.00000       0.999994        1.00000        1.00000        1.00000        1.00000       0.770071       0.968137     
  0.996225       0.999985       0.999995       0.998059       0.999966       0.999905       0.999826       0.999442        1.00000        1.00000     
   1.00000       0.999955        1.00000        1.00000       0.999994        1.00000        1.00000        1.00000        1.00000       0.758283     
  0.966313       0.996007       0.999989       0.999996       0.998307       0.999970       0.999912       0.999834       0.999456        1.00000     
   1.00000        1.00000       0.999954        1.00000        1.00000       0.999995        1.00000        1.00000        1.00000        1.00000     
  0.765364       0.967351       0.996129       0.999981       0.999994       0.997811       0.999962       0.999894       0.999809       0.999392     
   1.00000        1.00000        1.00000       0.999953        1.00000        1.00000       0.999994        1.00000        1.00000        1.00000     
   1.00000       0.739209       0.963257       0.995640       0.999994       0.999997       0.998857       0.999979       0.999937       0.999874     
  0.999577        1.00000        1.00000        1.00000       0.999962        1.00000        1.00000       0.999997        1.00000        1.00000     
   1.00000        1.00000       0.814124       0.974768       0.997014       0.999983       0.999994       0.997692       0.999958       0.999879     
  0.999773       0.999263        1.00000        1.00000        1.00000       0.999938        1.00000        1.00000       0.999993        1.00000     
   1.00000        1.00000        1.00000       0.695779       0.955916       0.994746     
 
  0.999977       0.999989       0.997204       0.999927       0.999792       0.999612       0.998746        1.00000        1.00000        1.00000     
  0.999898        1.00000        1.00000       0.999991        1.00000        1.00000        1.00000        1.00000       0.559387       0.926656     
  0.991075       0.999971       0.999988       0.996824       0.999919       0.999773       0.999588       0.998692        1.00000        1.00000     
   1.00000       0.999902        1.00000        1.00000       0.999991        1.00000        1.00000        1.00000        1.00000       0.543091     
  0.923226       0.990650       0.999981       0.999990       0.997341       0.999929       0.999790       0.999594       0.998661        1.00000     
   1.00000        1.00000       0.999884        1.00000        1.00000       0.999992        1.00000        1.00000        1.00000        1.00000     
  0.542408       0.922465       0.990531       0.999965       0.999986       0.996427       0.999909       0.999748       0.999548       0.998573     
   1.00000        1.00000        1.00000       0.999897        1.00000        1.00000       0.999991        1.00000        1.00000        1.00000     
   1.00000       0.513239       0.916377       0.989785       0.999990       0.999993       0.998262       0.999951       0.999849       0.999689     
  0.998929        1.00000        1.00000        1.00000       0.999900        1.00000        1.00000       0.999995        1.00000        1.00000     
   1.00000        1.00000       0.618206       0.938281       0.992503       0.999969       0.999985       0.996274       0.999899       0.999709     
  0.999457       0.998246        1.00000        1.00000        1.00000       0.999857        1.00000        1.00000       0.999989        1.00000     
   1.00000        1.00000        1.00000       0.446419       0.899030       0.987539     
 
  0.999966       0.999976       0.995800       0.999838       0.999530       0.999110       0.997098        1.00000        1.00000        1.00000     
  0.999778        1.00000        1.00000       0.999986        1.00000        1.00000        1.00000        1.00000       0.305658       0.841508     
  0.979542       0.999956       0.999973       0.995206       0.999819       0.999488       0.999058       0.996987        1.00000        1.00000     
   1.00000       0.999784        1.00000        1.00000       0.999986        1.00000        1.00000        1.00000        1.00000       0.288286     
  0.835002       0.978660       0.999974       0.999978       0.996133       0.999843       0.999525       0.999050       0.996796        1.00000     
   1.00000        1.00000       0.999738        1.00000        1.00000       0.999988        1.00000        1.00000        1.00000        1.00000     
  0.280309       0.828638       0.977652       0.999946       0.999969       0.994563       0.999796       0.999431       0.998975       0.996756     
   1.00000        1.00000        1.00000       0.999776        1.00000        1.00000       0.999986        1.00000        1.00000        1.00000     
   1.00000       0.260048       0.822923       0.976972       0.999986       0.999986       0.997507       0.999894       0.999659       0.999272     
  0.997434        1.00000        1.00000        1.00000       0.999780        1.00000        1.00000       0.999992        1.00000        1.00000     
   1.00000        1.00000       0.368943       0.862146       0.982281       0.999955       0.999968       0.994471       0.999775       0.999343     
  0.998742       0.995876        1.00000        1.00000       0.999999       0.999682        1.00000        1.00000       0.999983       0.999999     
  0.999999       0.999999       0.999999       0.191030       0.783329       0.971095     
 
  0.999955       0.999952       0.994015       0.999661       0.998995       0.998049       0.993552        1.00000       0.999999       0.999999     
  0.999542        1.00000        1.00000       0.999980       0.999999       0.999999       0.999999       0.999999       0.115624       0.692217     
  0.955393       0.999942       0.999945       0.993162       0.999621       0.998904       0.997933       0.993285        1.00000       0.999999     
  0.999999       0.999548        1.00000        1.00000       0.999980       0.999999       0.999999       0.999999       0.999999       0.102890     
  0.679993       0.953363       0.999965       0.999956       0.994653       0.999677       0.998986       0.997885       0.992682        1.00000     
  0.999999       0.999999       0.999466        1.00000        1.00000       0.999983       0.999999       0.999999       0.999999       0.999999     
  0.968908E-001  0.664482       0.950162       0.999927       0.999936       0.992189       0.999572       0.998784       0.997761       0.992837     
   1.00000       0.999999       0.999999       0.999531        1.00000        1.00000       0.999979       0.999999       0.999999       0.999999     
  0.999999       0.860161E-001  0.661086       0.950117       0.999982       0.999971       0.996567       0.999780       0.999275       0.998391     
  0.994194        1.00000        1.00000       0.999999       0.999574        1.00000        1.00000       0.999988       0.999999       0.999999     
  0.999999       0.999999       0.163799       0.726455       0.960723       0.999940       0.999934       0.992222       0.999532       0.998593     
  0.997216       0.990691       0.999999       0.999999       0.999999       0.999339        1.00000        1.00000       0.999975       0.999999     
  0.999999       0.999999       0.999999       0.484586E-001  0.590788       0.936414     
 
  0.999941       0.999906       0.991782       0.999327       0.997960       0.995928       0.986348       0.999999       0.999999       0.999998     
  0.999137       0.999999       0.999999       0.999973       0.999998       0.999998       0.999998       0.999998       0.304465E-001  0.484063     
  0.908690       0.999925       0.999893       0.990624       0.999248       0.997772       0.995667       0.985710       0.999999       0.999999     
  0.999998       0.999129       0.999999       0.999999       0.999971       0.999998       0.999998       0.999998       0.999998       0.246698E-001
  0.465426       0.904190       0.999954       0.999915       0.992871       0.999366       0.997943       0.995523       0.984138       0.999999     
  0.999999       0.999998       0.999009       0.999999       0.999999       0.999975       0.999998       0.999998       0.999998       0.999998     
  0.227297E-001  0.442029       0.896317       0.999907       0.999877       0.989281       0.999149       0.997524       0.995294       0.984703     
  0.999999       0.999999       0.999998       0.999091       0.999999       0.999999       0.999969       0.999998       0.999998       0.999998     
  0.999998       0.181522E-001  0.438817       0.897361       0.999974       0.999943       0.995411       0.999568       0.998534       0.996627     
  0.987582       0.999999       0.999999       0.999998       0.999244        1.00000        1.00000       0.999982       0.999999       0.999999     
  0.999998       0.999998       0.554273E-001  0.532378       0.918781       0.999922       0.999873       0.989460       0.999077       0.997142     
  0.994132       0.980017       0.999999       0.999998       0.999997       0.998742       0.999999       0.999999       0.999965       0.999997     
  0.999997       0.999997       0.999997       0.729487E-002  0.351524       0.869662     
 
  0.999921       0.999825       0.989036       0.998723       0.996046       0.991885       0.972509       0.999998       0.999998       0.999996     
  0.998513       0.999999       0.999999       0.999963       0.999996       0.999996       0.999996       0.999996       0.609991E-002  0.269605     
  0.826548       0.999902       0.999801       0.987520       0.998576       0.995676       0.991329       0.971062       0.999998       0.999997     
  0.999995       0.998473       0.999999       0.999999       0.999960       0.999996       0.999996       0.999996       0.999996       0.435348E-002
  0.249141       0.817503       0.999936       0.999843       0.990753       0.998813       0.996023       0.990979       0.967449       0.999998     
  0.999997       0.999995       0.998334       0.999999       0.999999       0.999966       0.999996       0.999996       0.999996       0.999996     
  0.402713E-002  0.227157       0.801561       0.999881       0.999772       0.985769       0.998391       0.995188       0.990530       0.968782     
  0.999998       0.999997       0.999995       0.998385       0.999999       0.999999       0.999957       0.999996       0.999996       0.999996     
  0.999996       0.268726E-002  0.221664       0.803880       0.999961       0.999894       0.993978       0.999185       0.997170       0.993291     
  0.974995       0.999998       0.999998       0.999996       0.998757       0.999999       0.999999       0.999976       0.999997       0.999997     
  0.999997       0.999997       0.156488E-001  0.324183       0.845244       0.999896       0.999765       0.986124       0.998260       0.994460     
  0.988211       0.959344       0.999997       0.999996       0.999993       0.997833       0.999998       0.999998       0.999951       0.999995     
  0.999995       0.999994       0.999994       0.736397E-003  0.150358       0.755253     
 
  0.999890       0.999685       0.985704       0.997676       0.992659       0.984524       0.947410       0.999997       0.999995       0.999991     
  0.997643       0.999998       0.999998       0.999952       0.999993       0.999993       0.999993       0.999993       0.104474E-002  0.114992     
  0.698724       0.999868       0.999645       0.983775       0.997413       0.991963       0.983402       0.944367       0.999996       0.999995     
  0.999991       0.997547       0.999998       0.999998       0.999946       0.999993       0.999993       0.999992       0.999992       0.640472E-003
  0.997322E-001  0.683031       0.999905       0.999720       0.988200       0.997860       0.992638       0.982723       0.937327       0.999996     
  0.999994       0.999990       0.997432       0.999998       0.999998       0.999954       0.999992       0.999992       0.999991       0.999991     
  0.619157E-003  0.876912E-001  0.658300       0.999843       0.999596       0.981573       0.997082       0.991047       0.981772       0.939542     
  0.999996       0.999995       0.999990       0.997381       0.999998       0.999998       0.999941       0.999992       0.999992       0.999992     
  0.999992       0.319860E-003  0.809029E-001  0.659614       0.999939       0.999807       0.992187       0.998518       0.994764       0.987309     
  0.952658       0.999997       0.999996       0.999992       0.998095       0.999998       0.999998       0.999967       0.999994       0.999994     
  0.999994       0.999994       0.405622E-002  0.161470       0.731583       0.999854       0.999580       0.982093       0.996850       0.989724     
  0.977440       0.922149       0.999995       0.999993       0.999987       0.996592       0.999997       0.999997       0.999934       0.999990     
  0.999990       0.999989       0.999989       0.586977E-004  0.440488E-001  0.588625     
 
  0.999841       0.999455       0.981715       0.995932       0.986908       0.971708       0.904662       0.999993       0.999991       0.999984     
  0.996545       0.999996       0.999996       0.999938       0.999987       0.999987       0.999986       0.999986       0.166053E-003  0.377819E-001
  0.529264       0.999814       0.999387       0.979295       0.995474       0.985661       0.969583       0.898889       0.999993       0.999991     
  0.999982       0.996368       0.999996       0.999996       0.999929       0.999987       0.999987       0.999986       0.999986       0.847714E-004
  0.300158E-001  0.507097       0.999853       0.999511       0.985045       0.996259       0.986907       0.968574       0.887596       0.999992     
  0.999990       0.999981       0.996309       0.999996       0.999996       0.999938       0.999986       0.999986       0.999984       0.999984     
  0.904695E-004  0.262007E-001  0.479708       0.999782       0.999305       0.976550       0.994904       0.984019       0.966507       0.889865     
  0.999992       0.999990       0.999980       0.996096       0.999996       0.999996       0.999921       0.999985       0.999985       0.999984     
  0.999984       0.324973E-004  0.215098E-001  0.475238       0.999902       0.999660       0.989967       0.997394       0.990684       0.977052     
  0.915454       0.999994       0.999992       0.999985       0.997273       0.999997       0.999997       0.999955       0.999989       0.999989     
  0.999988       0.999988       0.103126E-002  0.669851E-001  0.579899       0.999784       0.999270       0.977157       0.994488       0.981712     
  0.958943       0.860971       0.999990       0.999987       0.999975       0.995028       0.999994       0.999994       0.999912       0.999981     
  0.999981       0.999980       0.999980       0.369444E-005  0.905094E-002  0.393390     
 
  0.999760       0.999084       0.976987       0.993128       0.977541       0.950368       0.836939       0.999988       0.999984       0.999972     
  0.995300       0.999993       0.999993       0.999922       0.999978       0.999978       0.999975       0.999975       0.257355E-004  0.100206E-001
  0.345898       0.999727       0.998974       0.973974       0.992359       0.975397       0.946604       0.827183       0.999987       0.999983     
  0.999968       0.995015       0.999993       0.999993       0.999907       0.999976       0.999976       0.999974       0.999974       0.107710E-004
  0.714273E-002  0.321439       0.999768       0.999169       0.981149       0.993656       0.977588       0.945474       0.811976       0.999986     
  0.999982       0.999966       0.995032       0.999992       0.999992       0.999919       0.999975       0.999975       0.999971       0.999971     
  0.131780E-004  0.643839E-002  0.300326       0.999685       0.998837       0.970520       0.991392       0.972584       0.941270       0.812574     
  0.999986       0.999981       0.999965       0.994595       0.999992       0.999992       0.999895       0.999973       0.999974       0.999971     
  0.999971       0.310285E-005  0.441993E-002  0.288692       0.999840       0.999420       0.987248       0.995569       0.984034       0.960182     
  0.857424       0.999989       0.999987       0.999974       0.996356       0.999994       0.999994       0.999941       0.999981       0.999981     
  0.999979       0.999979       0.266501E-003  0.241574E-001  0.409962       0.999669       0.998766       0.971108       0.990658       0.968713     
  0.928798       0.769199       0.999982       0.999977       0.999956       0.993227       0.999990       0.999990       0.999885       0.999967     
  0.999967       0.999964       0.999964       0.211022E-006  0.140254E-002  0.216223     
 
  0.999631       0.998508       0.971441       0.988789       0.962912       0.916466       0.738493       0.999979       0.999974       0.999953     
  0.994024       0.999988       0.999988       0.999902       0.999961       0.999961       0.999957       0.999957       0.376483E-005  0.228991E-002
  0.189694       0.999588       0.998329       0.967672       0.987520       0.959381       0.910303       0.724267       0.999978       0.999971     
  0.999947       0.993590       0.999988       0.999988       0.999882       0.999958       0.999958       0.999954       0.999954       0.125211E-005
  0.144586E-002  0.169325       0.999631       0.998624       0.976333       0.989559       0.963042       0.909632       0.707327       0.999976     
  0.999969       0.999943       0.993659       0.999987       0.999987       0.999894       0.999957       0.999957       0.999951       0.999951     
  0.186415E-005  0.139887E-002  0.158677       0.999532       0.998104       0.963306       0.985920       0.954766       0.901679       0.703467     
  0.999976       0.999968       0.999940       0.992982       0.999986       0.999986       0.999864       0.999954       0.999954       0.999950     
  0.999950       0.259504E-006  0.759606E-003  0.143852       0.999740       0.999040       0.983948       0.992711       0.973622       0.933609     
  0.773598       0.999982       0.999977       0.999957       0.995403       0.999991       0.999991       0.999923       0.999968       0.999968     
  0.999964       0.999964       0.711623E-004  0.795984E-002  0.254045       0.999487       0.997969       0.963764       0.984669       0.948525     
  0.882164       0.644817       0.999969       0.999960       0.999926       0.991309       0.999983       0.999983       0.999851       0.999944     
  0.999944       0.999937       0.999937       0.101238E-007  0.179043E-003  0.951464E-001
 
  0.999428       0.997637       0.964989       0.982316       0.941058       0.865325       0.609363       0.999965       0.999957       0.999925     
  0.992808       0.999981       0.999981       0.999878       0.999935       0.999935       0.999927       0.999927       0.563483E-006  0.477941E-003
  0.865982E-001  0.999370       0.997348       0.960202       0.980254       0.935477       0.856145       0.592155       0.999963       0.999952     
  0.999914       0.992167       0.999979       0.999979       0.999851       0.999930       0.999930       0.999923       0.999923       0.145835E-006
  0.264702E-003  0.738249E-001  0.999418       0.997783       0.970401       0.983325       0.941290       0.856931       0.576953       0.999960     
  0.999950       0.999908       0.992204       0.999979       0.999979       0.999864       0.999929       0.999929       0.999919       0.999919     
  0.280916E-006  0.284964E-003  0.708441E-001  0.999292       0.996988       0.954720       0.977692       0.928230       0.843009       0.565833     
  0.999960       0.999947       0.999902       0.991346       0.999977       0.999977       0.999826       0.999924       0.999924       0.999916     
  0.999916       0.212092E-007  0.115306E-003  0.584855E-001  0.999586       0.998452       0.979887       0.988364       0.957962       0.893947     
  0.664132       0.999971       0.999963       0.999931       0.994391       0.999985       0.999985       0.999900       0.999948       0.999948     
  0.999940       0.999940       0.205525E-004  0.251038E-002  0.138398       0.999201       0.996748       0.954940       0.975653       0.918599     
  0.814080       0.495181       0.999949       0.999935       0.999881       0.989368       0.999972       0.999972       0.999811       0.999906     
  0.999907       0.999895       0.999895       0.489709E-009  0.196009E-004  0.333633E-001
 
  0.999113       0.996356       0.957524       0.973021       0.909912       0.792678       0.459500       0.999943       0.999931       0.999884     
  0.991697       0.999968       0.999968       0.999849       0.999893       0.999893       0.999880       0.999880       0.104023E-006  0.941724E-004
  0.333515E-001  0.999037       0.995897       0.951375       0.969725       0.901453       0.780261       0.442491       0.999940       0.999924     
  0.999866       0.990774       0.999966       0.999966       0.999813       0.999887       0.999887       0.999874       0.999874       0.214011E-007
  0.451243E-004  0.270552E-001  0.999096       0.996521       0.963160       0.974188       0.910228       0.783825       0.432228       0.999937     
  0.999921       0.999857       0.990718       0.999966       0.999966       0.999827       0.999886       0.999886       0.999871       0.999871     
  0.530186E-007  0.558018E-004  0.271670E-001  0.998927       0.995340       0.944609       0.965791       0.890598       0.761319       0.412754     
  0.999935       0.999916       0.999846       0.989742       0.999963       0.999963       0.999779       0.999876       0.999876       0.999863     
  0.999863       0.232683E-008  0.156931E-004  0.196398E-001  0.999352       0.997567       0.974839       0.981938       0.935379       0.838104     
  0.536009       0.999953       0.999942       0.999893       0.993311       0.999975       0.999975       0.999873       0.999917       0.999917     
  0.999905       0.999905       0.654650E-005  0.782187E-003  0.675217E-001  0.998765       0.994935       0.944439       0.962598       0.876424     
  0.721212       0.338728       0.999918       0.999897       0.999815       0.987472       0.999955       0.999955       0.999762       0.999849     
  0.999849       0.999831       0.999831       0.382192E-010  0.179611E-005  0.945346E-002
 
  0.998633       0.994526       0.948988       0.960217       0.867701       0.696120       0.307822       0.999909       0.999893       0.999826     
  0.990726       0.999949       0.999949       0.999813       0.999829       0.999829       0.999808       0.999808       0.246067E-007  0.180896E-004
  0.110768E-001  0.998541       0.993808       0.941012       0.955041       0.855399       0.681165       0.294965       0.999906       0.999884     
  0.999799       0.989442       0.999947       0.999947       0.999769       0.999821       0.999821       0.999801       0.999801       0.408400E-008
  0.749898E-005  0.854293E-002  0.998620       0.994684       0.954409       0.961298       0.867980       0.688959       0.291209       0.999902     
  0.999880       0.999784       0.989254       0.999947       0.999947       0.999782       0.999823       0.999823       0.999799       0.999799     
  0.125117E-007  0.108381E-004  0.917252E-002  0.998384       0.992965       0.932686       0.949172       0.839913       0.656084       0.266530     
  0.999897       0.999869       0.999765       0.988146       0.999942       0.999942       0.999722       0.999805       0.999805       0.999784     
  0.999784       0.346970E-009  0.206101E-005  0.560610E-002  0.999010       0.996272       0.968638       0.972790       0.904242       0.763773     
  0.400950       0.999928       0.999911       0.999838       0.992214       0.999962       0.999962       0.999839       0.999871       0.999871     
  0.999853       0.999853       0.237886E-005  0.244585E-003  0.301210E-001  0.998113       0.992318       0.932046       0.944434       0.820113     
  0.604366       0.199935       0.999872       0.999842       0.999722       0.985667       0.999929       0.999929       0.999701       0.999763     
  0.999763       0.999733       0.999733       0.443555E-011  0.155171E-006  0.221837E-002
 
  0.997911       0.991979       0.939375       0.943359       0.813488       0.577371       0.176964       0.999857       0.999837       0.999744     
  0.989876       0.999921       0.999921       0.999765       0.999733       0.999733       0.999697       0.999697       0.165884E-007  0.322718E-005
  0.324636E-002  0.997814       0.990884       0.928933       0.935348       0.796293       0.561987       0.170958       0.999855       0.999825     
  0.999706       0.988177       0.999918       0.999918       0.999714       0.999725       0.999725       0.999693       0.999693       0.258182E-008
  0.111897E-005  0.238962E-002  0.997931       0.992085       0.943928       0.943802       0.813382       0.575061       0.172715       0.999853     
  0.999820       0.999683       0.987849       0.999920       0.999920       0.999725       0.999731       0.999731       0.999694       0.999694     
  0.836584E-008  0.197920E-005  0.279872E-002  0.997599       0.989619       0.918556       0.926739       0.775251       0.532456       0.149163     
  0.999843       0.999803       0.999651       0.986502       0.999911       0.999911       0.999653       0.999701       0.999701       0.999668     
  0.999668       0.203366E-009  0.231922E-006  0.140998E-002  0.998517       0.994432       0.961108       0.960245       0.863261       0.670974     
  0.274123       0.999893       0.999868       0.999763       0.991149       0.999942       0.999942       0.999798       0.999806       0.999806     
  0.999778       0.999778       0.180348E-005  0.778242E-004  0.125504E-001  0.997161       0.988643       0.917508       0.920151       0.749125     
  0.470965       0.985066E-001  0.999805       0.999763       0.999592       0.983950       0.999892       0.999892       0.999627       0.999636     
  0.999636       0.999590       0.999590       0.239570E-011  0.107108E-007  0.444781E-003
 
  0.996844       0.988502       0.928554       0.922034       0.747528       0.444883       0.843146E-001  0.999780       0.999754       0.999627     
  0.989079       0.999878       0.999878       0.999702       0.999590       0.999590       0.999530       0.999530       0.165884E-007  0.606135E-006
  0.859441E-003  0.996772       0.986893       0.914936       0.909938       0.724469       0.431755       0.840332E-001  0.999783       0.999743     
  0.999580       0.986978       0.999877       0.999877       0.999646       0.999587       0.999587       0.999536       0.999536       0.258182E-008
  0.166407E-006  0.605761E-003  0.996956       0.988501       0.931464       0.920921       0.746414       0.450072       0.884681E-001  0.999783     
  0.999738       0.999546       0.986490       0.999881       0.999881       0.999655       0.999601       0.999601       0.999546       0.999546     
  0.836584E-008  0.369112E-006  0.789644E-003  0.996488       0.985031       0.901950       0.897612       0.697294       0.400940       0.707303E-001
  0.999768       0.999711       0.999496       0.984838       0.999867       0.999867       0.999569       0.999554       0.999554       0.999505     
  0.999505       0.203366E-009  0.251920E-007  0.319477E-003  0.997823       0.991886       0.952057       0.943661       0.811802       0.563177     
  0.169170       0.999843       0.999809       0.999662       0.990125       0.999915       0.999915       0.999747       0.999713       0.999713     
  0.999673       0.999673       0.180348E-005  0.255384E-004  0.496980E-002  0.995806       0.983601       0.900428       0.888826       0.664745     
  0.335432       0.394377E-001  0.999710       0.999653       0.999415       0.982271       0.999838       0.999838       0.999534       0.999456     
  0.999456       0.999385       0.999385       0.239570E-011  0.745341E-009  0.781167E-004
 
  0.995302       0.983823       0.916221       0.895894       0.671364       0.313333       0.323815E-001  0.999666       0.999634       0.999458     
  0.988227       0.999817       0.999817       0.999617       0.999382       0.999382       0.999287       0.999287       0.165884E-007  0.137269E-006
  0.208365E-003  0.995309       0.981569       0.898778       0.878318       0.641863       0.304277       0.343102E-001  0.999681       0.999628     
  0.999409       0.985784       0.999819       0.999819       0.999558       0.999391       0.999391       0.999315       0.999315       0.258182E-008
  0.285243E-007  0.140490E-003  0.995606       0.983677       0.916709       0.892010       0.668464       0.326254       0.386264E-001  0.999688     
  0.999627       0.999362       0.985133       0.999828       0.999828       0.999567       0.999421       0.999421       0.999341       0.999341     
  0.836584E-008  0.767110E-007  0.208859E-003  0.994947       0.978898       0.882626       0.861226       0.608583       0.275849       0.278591E-001
  0.999663       0.999586       0.999290       0.983129       0.999806       0.999806       0.999467       0.999350       0.999350       0.999277     
  0.999277       0.203366E-009  0.318704E-008  0.656397E-004  0.996865       0.988451       0.941276       0.922485       0.750144       0.447616     
  0.933697E-001  0.999775       0.999729       0.999529       0.989120       0.999877       0.999877       0.999684       0.999585       0.999585     
  0.999527       0.999527       0.180348E-005  0.855206E-005  0.189073E-002  0.993926       0.976837       0.880385       0.849807       0.570291     
  0.214667       0.125837E-001  0.999578       0.999501       0.999177       0.980565       0.999763       0.999763       0.999416       0.999204     
  0.999204       0.999100       0.999100       0.239570E-011  0.701032E-010  0.118898E-004
 
  0.993134       0.977609       0.901904       0.864582       0.587681       0.199027       0.991654E-002  0.999503       0.999465       0.999221     
  0.987262       0.999730       0.999730       0.999502       0.999089       0.999089       0.998940       0.998941       0.165884E-007  0.368841E-007
  0.464259E-004  0.993299       0.974610       0.880172       0.840243       0.551929       0.194015       0.114910E-001  0.999542       0.999473     
  0.999178       0.984532       0.999739       0.999739       0.999446       0.999122       0.999122       0.999010       0.999010       0.258182E-008
  0.575437E-008  0.298354E-004  0.993778       0.977327       0.899360       0.856671       0.582363       0.216535       0.142690E-001  0.999560     
  0.999477       0.999118       0.983680       0.999755       0.999755       0.999457       0.999176       0.999176       0.999063       0.999063     
  0.836584E-008  0.181090E-007  0.519357E-004  0.992852       0.970894       0.860348       0.817414       0.513385       0.170895       0.899579E-002
  0.999521       0.999418       0.999022       0.981372       0.999723       0.999723       0.999340       0.999071       0.999071       0.998966     
  0.998966       0.203366E-009  0.480995E-009  0.121704E-004  0.995567       0.983921       0.928544       0.896311       0.679584       0.334088     
  0.458386E-001  0.999684       0.999622       0.999355       0.988065       0.999825       0.999825       0.999606       0.999412       0.999412     
  0.999330       0.999330       0.180348E-005  0.307603E-005  0.694356E-003  0.991368       0.967972       0.857091       0.802974       0.470915     
  0.121351       0.315013E-002  0.999399       0.999297       0.998859       0.978741       0.999661       0.999661       0.999267       0.998861     
  0.998861       0.998711       0.998711       0.239570E-011  0.837601E-011  0.152280E-005
 
  0.990244       0.969516       0.884751       0.827198       0.499616       0.113638       0.250859E-002  0.999286       0.999238       0.998902     
  0.986052       0.999614       0.999615       0.999353       0.998697       0.998697       0.998478       0.998478       0.165884E-007  0.250912E-007
  0.965417E-005  0.990603       0.965671       0.858718       0.795660       0.459178       0.110738       0.316007E-002  0.999353       0.999263     
  0.998871       0.983096       0.999631       0.999631       0.999302       0.998760       0.998760       0.998599       0.998599       0.258182E-008
  0.362635E-008  0.576034E-005  0.991346       0.969143       0.879137       0.814849       0.492151       0.130263       0.445307E-002  0.999390     
  0.999278       0.998795       0.982006       0.999658       0.999658       0.999319       0.998850       0.998850       0.998693       0.998693     
  0.836583E-008  0.119597E-007  0.120069E-004  0.990054       0.960667       0.834888       0.766467       0.417104       0.940971E-001  0.236826E-002
  0.999331       0.999196       0.998676       0.979497       0.999612       0.999612       0.999182       0.998697       0.998697       0.998550     
  0.998550       0.203366E-009  0.278107E-009  0.199612E-005  0.993841       0.978071       0.913629       0.864927       0.602408       0.232496     
  0.199921E-001  0.999564       0.999482       0.999128       0.986877       0.999756       0.999756       0.999508       0.999181       0.999181     
  0.999068       0.999068       0.180348E-005  0.231022E-005  0.246573E-003  0.987952       0.956597       0.830260       0.748708       0.372773     
  0.596866E-001  0.614236E-003  0.999160       0.999020       0.998419       0.976563       0.999525       0.999525       0.999076       0.998402     
  0.998402       0.998190       0.998190       0.239570E-011  0.445306E-011  0.163649E-006
 
  0.986609       0.959236       0.863792       0.782634       0.410830       0.586613E-001  0.561275E-003  0.999017       0.998946       0.998466     
  0.984292       0.999468       0.999468       0.999166       0.998203       0.998204       0.997901       0.997901       0.165884E-007  0.199679E-007
  0.183922E-005  0.987066       0.954385       0.834031       0.744844       0.368599       0.561404E-001  0.716986E-003  0.999106       0.998986     
  0.998455       0.981322       0.999490       0.999490       0.999117       0.998283       0.998283       0.998057       0.998058       0.258182E-008
  0.276065E-008  0.914798E-006  0.988168       0.958803       0.855770       0.766831       0.402504       0.704839E-001  0.117695E-002  0.999168     
  0.999017       0.998374       0.980076       0.999531       0.999531       0.999146       0.998422       0.998422       0.998209       0.998209     
  0.836583E-008  0.944406E-008  0.238629E-005  0.986385       0.947856       0.806037       0.709140       0.325419       0.455849E-001  0.504384E-003
  0.999083       0.998907       0.998229       0.977457       0.999465       0.999465       0.998985       0.998205       0.998205       0.998002     
  0.998002       0.203366E-009  0.199589E-009  0.242123E-006  0.991579       0.970663       0.896331       0.828383       0.521691       0.149973     
  0.774164E-002  0.999406       0.999298       0.998834       0.985537       0.999666       0.999666       0.999386       0.998877       0.998877     
  0.998724       0.998724       0.180348E-005  0.200741E-005  0.846264E-004  0.983473       0.942285       0.799639       0.687903       0.281920     
  0.252392E-001  0.920632E-004  0.998844       0.998645       0.997796       0.973713       0.999345       0.999345       0.998828       0.997796     
  0.997797       0.997504       0.997504       0.239570E-011  0.296603E-011  0.120875E-007
 
  0.982166       0.946437       0.838467       0.730780       0.325842       0.274669E-001  0.113540E-003  0.998693       0.998571       0.997850     
  0.981777       0.999289       0.999289       0.998933       0.997600       0.997600       0.997204       0.997204       0.165884E-007  0.199678E-007
  0.386653E-006  0.982503       0.940385       0.805847       0.688562       0.284930       0.251315E-001  0.133412E-003  0.998784       0.998614     
  0.997864       0.978898       0.999306       0.999306       0.998878       0.997666       0.997666       0.997356       0.997356       0.258182E-008
  0.276065E-008  0.152443E-006  0.984085       0.945971       0.829016       0.713252       0.317988       0.341303E-001  0.263862E-003  0.998882     
  0.998683       0.997829       0.977800       0.999367       0.999367       0.998930       0.997871       0.997871       0.997586       0.997586     
  0.836582E-008  0.944406E-008  0.477957E-006  0.981656       0.932097       0.773639       0.646622       0.243250       0.192937E-001  0.850572E-004
  0.998762       0.998533       0.997650       0.975064       0.999275       0.999275       0.998738       0.997568       0.997568       0.997293     
  0.997293       0.203366E-009  0.199588E-009  0.293628E-007  0.988657       0.961443       0.876436       0.786935       0.440852       0.893124E-001
  0.267036E-002  0.999203       0.999061       0.998451       0.983950       0.999549       0.999549       0.999233       0.998484       0.998484     
  0.998279       0.998279       0.180347E-005  0.200741E-005  0.282018E-004  0.977701       0.924608       0.765024       0.621927       0.203165     
  0.910176E-002  0.100684E-004  0.998432       0.998127       0.996854       0.969378       0.999111       0.999111       0.998505       0.997013     
  0.997013       0.996614       0.996615       0.239569E-011  0.296603E-011  0.103504E-008
 
  0.976818       0.930793       0.808535       0.672433       0.248874       0.116915E-001  0.206877E-004  0.998307       0.998078       0.996928     
  0.977798       0.999072       0.999072       0.998642       0.996872       0.996872       0.996372       0.996372       0.165884E-007  0.199678E-007
  0.805819E-007  0.976732       0.923313       0.773924       0.627840       0.211805       0.992293E-002  0.202421E-004  0.998371       0.998088     
  0.996890       0.974675       0.999072       0.999072       0.998566       0.996881       0.996881       0.996464       0.996465       0.258181E-008
  0.276064E-008  0.260514E-007  0.978925       0.930322       0.798680       0.655072       0.242386       0.147633E-001  0.503481E-004  0.998522     
  0.998259       0.997156       0.975289       0.999158       0.999158       0.998665       0.997171       0.997172       0.996796       0.996796     
  0.836581E-008  0.944405E-008  0.957742E-007  0.975663       0.913043       0.737617       0.580470       0.173965       0.711255E-002  0.110908E-004
  0.998355       0.998059       0.996926       0.972407       0.999033       0.999033       0.998432       0.996757       0.996757       0.996389     
  0.996390       0.203366E-009  0.199588E-009  0.363306E-008  0.984947       0.950148       0.853704       0.740995       0.363226       0.490403E-001
  0.829632E-003  0.998943       0.998746       0.997926       0.981870       0.999400       0.999400       0.999040       0.997983       0.997983     
  0.997712       0.997712       0.180347E-005  0.200741E-005  0.915394E-005  0.970391       0.903161       0.726322       0.552550       0.139285     
  0.278965E-002  0.751754E-006  0.997897       0.997348       0.995137       0.961012       0.998811       0.998812       0.998069       0.996014     
  0.996014       0.995478       0.995479       0.239568E-011  0.296602E-011  0.973715E-010
 
  0.970463       0.912013       0.773926       0.608959       0.182904       0.454206E-002  0.344676E-005  0.997839       0.997340       0.995201     
  0.969616       0.998811       0.998811       0.998262       0.996003       0.996004       0.995388       0.995389       0.165883E-007  0.199677E-007
  0.193683E-007  0.969718       0.902857       0.737709       0.563284       0.151110       0.350296E-002  0.264376E-005  0.997848       0.997246     
  0.994877       0.965060       0.998783       0.998784       0.998141       0.995922       0.995922       0.995375       0.995376       0.258180E-008
  0.276063E-008  0.535297E-008  0.972510       0.911551       0.764651       0.593531       0.178166       0.571076E-002  0.820153E-005  0.998068     
  0.997690       0.996142       0.971337       0.998897       0.998897       0.998329       0.996297       0.996298       0.995808       0.995809     
  0.836579E-008  0.944403E-008  0.230311E-007  0.968191       0.890386       0.697995       0.512485       0.118970       0.228480E-002  0.113619E-005
  0.997840       0.997418       0.995822       0.968147       0.998729       0.998729       0.998041       0.995739       0.995739       0.995255     
  0.995255       0.203365E-009  0.199588E-009  0.572281E-009  0.980309       0.936517       0.827933       0.691161       0.291668       0.248458E-001
  0.234594E-003  0.998613       0.998317       0.997114       0.978537       0.999212       0.999212       0.998795       0.997354       0.997354     
  0.996999       0.996999       0.180347E-005  0.200741E-005  0.337494E-005  0.961290       0.877595       0.683582       0.481799       0.907768E-001
  0.727218E-003  0.416959E-007  0.997200       0.996177       0.992218       0.946993       0.998434       0.998434       0.997501       0.994759     
  0.994760       0.994045       0.994046       0.239566E-011  0.296599E-011  0.121016E-010
 
  0.962998       0.889877       0.734810       0.542228       0.129347       0.161816E-002  0.474804E-006  0.997239       0.995988       0.991190     
  0.949968       0.998497       0.998497       0.997720       0.994977       0.994978       0.994225       0.994226       0.165880E-007  0.199674E-007
  0.124330E-007  0.961482       0.878801       0.696952       0.496077       0.103348       0.112358E-002  0.270061E-006  0.997151       0.995508     
  0.989470       0.938397       0.998434       0.998434       0.997492       0.994787       0.994787       0.994080       0.994080       0.258174E-008
  0.276057E-008  0.326348E-008  0.964661       0.889406       0.726951       0.530087       0.126302       0.198258E-002  0.107507E-005  0.997494     
  0.996827       0.994238       0.963287       0.998574       0.998574       0.997892       0.995220       0.995221       0.994589       0.994589     
  0.836575E-008  0.944398E-008  0.149227E-007  0.959029       0.863889       0.654956       0.444596       0.778254E-001  0.640835E-003  0.763342E-007
  0.997184       0.996437       0.993686       0.959056       0.998350       0.998350       0.997527       0.994480       0.994480       0.993847     
  0.993848       0.203364E-009  0.199587E-009  0.323907E-009  0.974604       0.920312       0.798988       0.638219       0.228269       0.116435E-001
  0.632171E-004  0.998193       0.997672       0.995652       0.972288       0.998979       0.998979       0.998476       0.996577       0.996577     
  0.996114       0.996114       0.180346E-005  0.200740E-005  0.250872E-005  0.950228       0.847680       0.636919       0.411593       0.562214E-001
  0.162307E-003  0.142465E-008  0.996293       0.994242       0.986629       0.920878       0.997965       0.997965       0.996740       0.993219     
  0.993219       0.992277       0.992277       0.239562E-011  0.296594E-011  0.624671E-011
 
  0.954341       0.864255       0.691534       0.474313       0.880765E-001  0.531611E-003  0.710254E-007  0.996399       0.993055       0.981096     
  0.902537       0.998115       0.998115       0.996859       0.993775       0.993776       0.992842       0.992843       0.165874E-007  0.199667E-007
  0.124326E-007  0.951923       0.851024       0.652099       0.428478       0.678090E-001  0.328046E-003  0.318600E-007  0.996093       0.991235     
  0.974212       0.866993       0.998000       0.998000       0.996355       0.993450       0.993451       0.992510       0.992511       0.258159E-008
  0.276041E-008  0.326328E-008  0.955255       0.863720       0.685665       0.466158       0.863722E-001  0.622159E-003  0.165610E-006  0.996759     
  0.995410       0.990472       0.947650       0.998180       0.998180       0.997318       0.993918       0.993919       0.993108       0.993109     
  0.836565E-008  0.944387E-008  0.149225E-007  0.947967       0.833408       0.608856       0.378684       0.487402E-001  0.155910E-003  0.655480E-008
  0.996323       0.994694       0.988927       0.938937       0.997883       0.997883       0.996824       0.992943       0.992944       0.992115     
  0.992116       0.203361E-009  0.199584E-009  0.323902E-009  0.967691       0.901328       0.766828       0.583100       0.174180       0.506710E-002
  0.180332E-004  0.997663       0.996741       0.993336       0.962937       0.998693       0.998693       0.998080       0.995628       0.995629     
  0.995031       0.995031       0.180345E-005  0.200739E-005  0.250870E-005  0.937262       0.813420       0.586510       0.343543       0.330634E-001
  0.309240E-004  0.774727E-010  0.995124       0.991031       0.976465       0.877043       0.997399       0.997399       0.995729       0.991391     
  0.991392       0.990168       0.990169       0.239553E-011  0.296583E-011  0.624648E-011
 
  0.944417       0.835125       0.644679       0.407379       0.578249E-001  0.162055E-003  0.121927E-007  0.995106       0.986867       0.958900     
  0.810469       0.997639       0.997639       0.995483       0.992372       0.992373       0.991167       0.991167       0.165859E-007  0.199649E-007
  0.124314E-007  0.940955       0.819539       0.603854       0.362769       0.427471E-001  0.870463E-004  0.452488E-008  0.994436       0.982574     
  0.942916       0.743628       0.997450       0.997451       0.994552       0.991884       0.991885       0.990583       0.990584       0.258126E-008
  0.276005E-008  0.326286E-008  0.944338       0.834511       0.640969       0.403010       0.569928E-001  0.178123E-003  0.310273E-007  0.995836     
  0.993182       0.983864       0.921302       0.997711       0.997711       0.996592       0.992392       0.992393       0.991367       0.991368     
  0.836545E-008  0.944364E-008  0.149222E-007  0.935083       0.798994       0.559898       0.315959       0.292269E-001  0.326952E-004  0.756896E-009
  0.995120       0.990998       0.976993       0.889925       0.997314       0.997314       0.995797       0.991126       0.991127       0.990032     
  0.990033       0.203352E-009  0.199575E-009  0.323887E-009  0.959481       0.879442       0.731490       0.526747       0.129649       0.206440E-002
  0.574073E-005  0.997008       0.995490       0.990036       0.950214       0.998349       0.998349       0.997605       0.994494       0.994495     
  0.993733       0.993734       0.180343E-005  0.200736E-005  0.250867E-005  0.922475       0.775013       0.533084       0.279619       0.184766E-001
  0.485368E-005  0.626638E-011  0.993543       0.985280       0.957089       0.801754       0.996721       0.996722       0.994337       0.989273     
  0.989274       0.987689       0.987690       0.239535E-011  0.296560E-011  0.624600E-011
 
  0.933162       0.802594       0.595063       0.343483       0.366753E-001  0.462649E-004  0.614622E-008  0.993076       0.975374       0.918184     
  0.670715       0.997036       0.997036       0.993415       0.990741       0.990743       0.989101       0.989102       0.165829E-007  0.199612E-007
  0.124292E-007  0.928520       0.784518       0.553151       0.301008       0.259480E-001  0.212726E-004  0.210993E-008  0.992006       0.968435     
  0.893311       0.587629       0.996765       0.996765       0.992080       0.990066       0.990067       0.988237       0.988238       0.258067E-008
  0.275942E-008  0.326212E-008  0.931972       0.801937       0.593411       0.342192       0.363287E-001  0.472426E-004  0.161406E-007  0.994676     
  0.989558       0.972123       0.878401       0.997162       0.997162       0.995661       0.990644       0.990645       0.989362       0.989363     
  0.836508E-008  0.944323E-008  0.149215E-007  0.920566       0.760918       0.508667       0.257726       0.167955E-001  0.614239E-005  0.322051E-009
  0.993238       0.982502       0.947637       0.782658       0.996615       0.996615       0.994148       0.989033       0.989034       0.987527     
  0.987528       0.203326E-009  0.199549E-009  0.323846E-009  0.949979       0.854672       0.693148       0.470130       0.941981E-001  0.796075E-003
  0.370757E-005  0.996221       0.993767       0.985266       0.933444       0.997945       0.997945       0.997038       0.993171       0.993172     
  0.992218       0.992219       0.180340E-005  0.200733E-005  0.250863E-005  0.905808       0.732796       0.477901       0.221849       0.983671E-002
  0.656222E-006  0.228180E-011  0.991191       0.974112       0.918653       0.673997       0.995892       0.995893       0.992279       0.986828     
  0.986830       0.984720       0.984721       0.239494E-011  0.296510E-011  0.624494E-011
 
  0.920515       0.766900       0.543668       0.284352       0.225285E-001  0.123516E-004  0.614413E-008  0.989752       0.954394       0.847306     
  0.485733       0.996244       0.996244       0.990288       0.988841       0.988843       0.986476       0.986477       0.165770E-007  0.199541E-007
  0.124247E-007  0.914586       0.746280       0.501072       0.244818       0.152080E-001  0.479527E-005  0.210918E-008  0.988454       0.946373     
  0.820377       0.418017       0.995903       0.995903       0.988779       0.987968       0.987969       0.985366       0.985367       0.257970E-008
  0.275839E-008  0.326090E-008  0.918134       0.766246       0.543895       0.285368       0.224215E-001  0.116749E-004  0.161392E-007  0.993126     
  0.983485       0.952088       0.811935       0.996518       0.996518       0.994460       0.988655       0.988657       0.987042       0.987043     
  0.836436E-008  0.944241E-008  0.149202E-007  0.904371       0.719557       0.456342       0.205533       0.927679E-002  0.104732E-005  0.321958E-009
  0.989985       0.963821       0.883845       0.595940       0.995710       0.995710       0.991391       0.986613       0.986614       0.984393     
  0.984394       0.203264E-009  0.199488E-009  0.323747E-009  0.939266       0.827175       0.652166       0.414305       0.668730E-001  0.294598E-003
  0.370742E-005  0.995184       0.990519       0.975122       0.899280       0.997473       0.997473       0.996298       0.991662       0.991663     
  0.990465       0.990465       0.180332E-005  0.200725E-005  0.250853E-005  0.887245       0.687302       0.422363       0.171585       0.500576E-002
  0.781653E-007  0.228109E-011  0.987578       0.953961       0.851586       0.502058       0.994859       0.994859       0.989287       0.984018     
  0.984020       0.981112       0.981113       0.239416E-011  0.296413E-011  0.624289E-011
 
  0.906449       0.728420       0.491575       0.231234       0.134424E-001  0.287335E-005  0.614053E-008  0.984536       0.920342       0.742756     
  0.298062       0.995196       0.995197       0.985881       0.986631       0.986632       0.983112       0.983114       0.165668E-007  0.199419E-007
  0.124171E-007  0.899143       0.705288       0.448784       0.195277       0.863408E-002  0.901274E-006  0.210799E-008  0.983325       0.913453     
  0.721621       0.261030       0.994810       0.994811       0.984450       0.985556       0.985558       0.981834       0.981835       0.257819E-008
  0.275677E-008  0.325898E-008  0.902825       0.727822       0.493449       0.233820       0.134363E-001  0.253453E-005  0.161367E-007  0.990942     
  0.972863       0.916860       0.710847       0.995751       0.995751       0.992845       0.986407       0.986409       0.984334       0.984335     
  0.836300E-008  0.944087E-008  0.149178E-007  0.886496       0.675467       0.404203       0.160339       0.494253E-002  0.140806E-006  0.321783E-009
  0.984771       0.931472       0.781597       0.380435       0.994542       0.994543       0.987383       0.983826       0.983828       0.980448     
  0.980450       0.203149E-009  0.199375E-009  0.323564E-009  0.927424       0.797193       0.609126       0.360462       0.464653E-001  0.106690E-003
  0.370711E-005  0.993765       0.984598       0.955616       0.839504       0.996921       0.996921       0.995327       0.989966       0.989967     
  0.988449       0.988450       0.180317E-005  0.200707E-005  0.250831E-005  0.866840       0.639268       0.367924       0.129450       0.244482E-002
  0.664301E-008  0.227995E-011  0.982490       0.923619       0.758465       0.332021       0.993594       0.993594       0.985394       0.980824     
  0.980827       0.976802       0.976804       0.239291E-011  0.296258E-011  0.623964E-011
 
  0.890958       0.687650       0.439900       0.184862       0.781773E-002  0.640490E-006  0.613474E-008  0.976768       0.870705       0.609528     
  0.149689       0.993832       0.993834       0.980089       0.984062       0.984064       0.978787       0.978789       0.165505E-007  0.199223E-007
  0.124049E-007  0.882213       0.662136       0.397462       0.152900       0.476595E-002  0.162302E-006  0.210621E-008  0.976127       0.868055     
  0.601614       0.138405       0.993444       0.993445       0.979072       0.982797       0.982799       0.977475       0.977477       0.257591E-008
  0.275433E-008  0.325610E-008  0.886071       0.687159       0.443144       0.188367       0.784310E-002  0.555349E-006  0.161321E-007  0.987697     
  0.954684       0.859184       0.574473       0.994821       0.994822       0.990660       0.983873       0.983875       0.981109       0.981110     
  0.836049E-008  0.943804E-008  0.149133E-007  0.866978       0.629345       0.353496       0.122477       0.255047E-002  0.185841E-007  0.321493E-009
  0.976886       0.881858       0.644000       0.197833       0.993040       0.993041       0.981948       0.980626       0.980628       0.975469     
  0.975471       0.202957E-009  0.199187E-009  0.323259E-009  0.914491       0.765020       0.564784       0.309772       0.316724E-001  0.399534E-004
  0.370663E-005  0.991878       0.975536       0.926837       0.762166       0.996280       0.996281       0.994112       0.988081       0.988082     
  0.986148       0.986149       0.180292E-005  0.200680E-005  0.250797E-005  0.844681       0.589557       0.315925       0.953644E-001  0.115129E-002
  0.557857E-009  0.227822E-011  0.975403       0.880686       0.641096       0.188336       0.992051       0.992052       0.980531       0.977216     
  0.977219       0.971628       0.971630       0.239101E-011  0.296023E-011  0.623470E-011
 
  0.874045       0.645183       0.389708       0.145465       0.444841E-002  0.154616E-006  0.612595E-008  0.965377       0.800078       0.454152     
  0.587742E-001  0.992013       0.992015       0.972410       0.981068       0.981070       0.973178       0.973180       0.165258E-007  0.198924E-007
  0.123863E-007  0.863853       0.617526       0.348198       0.117680       0.256865E-002  0.334248E-007  0.210368E-008  0.966220       0.807085     
  0.467188       0.622083E-001  0.991718       0.991719       0.972368       0.979653       0.979656       0.972104       0.972106       0.257268E-008
  0.275087E-008  0.325201E-008  0.867938       0.644864       0.394031       0.149362       0.447606E-002  0.143195E-006  0.161242E-007  0.982856     
  0.925692       0.773977       0.418036       0.993680       0.993680       0.987730       0.981026       0.981029       0.977208       0.977210     
  0.835625E-008  0.943325E-008  0.149058E-007  0.845874       0.581974       0.305332       0.917324E-001  0.128059E-002  0.313257E-008  0.321039E-009
  0.965184       0.810626       0.481986       0.804510E-001  0.991085       0.991087       0.974733       0.976947       0.976950       0.969103     
  0.969105       0.202658E-009  0.198893E-009  0.322782E-009  0.900523       0.731029       0.519950       0.263148       0.212356E-001  0.161367E-004
  0.370587E-005  0.989382       0.962441       0.886446       0.668362       0.995544       0.995544       0.992655       0.986003       0.986005     
  0.983521       0.983523       0.180254E-005  0.200637E-005  0.250743E-005  0.820880       0.539106       0.267500       0.687107E-001  0.525452E-003
  0.687672E-010  0.227563E-011  0.965401       0.821197       0.504796       0.903428E-001  0.990140       0.990142       0.974403       0.973144     
  0.973148       0.965315       0.965317       0.238817E-011  0.295672E-011  0.622729E-011
 
  0.855703       0.601652       0.341926       0.112823       0.248680E-002  0.371671E-007  0.611260E-008  0.948858       0.708037       0.300045     
  0.170459E-001  0.989635       0.989638       0.962752       0.977554       0.977557       0.965757       0.965758       0.164881E-007  0.198471E-007
  0.123581E-007  0.844126       0.572211       0.301920       0.891842E-001  0.135790E-002  0.693457E-008  0.210010E-008  0.952906       0.731645     
  0.334607       0.231197E-001  0.989599       0.989602       0.964464       0.976082       0.976085       0.965471       0.965472       0.256810E-008
  0.274599E-008  0.324623E-008  0.848560       0.601641       0.347083       0.116746       0.250792E-002  0.373866E-007  0.161127E-007  0.976308     
  0.886003       0.669317       0.276647       0.992319       0.992320       0.984148       0.977866       0.977869       0.972609       0.972610     
  0.835000E-008  0.942619E-008  0.148946E-007  0.823267       0.534187       0.260618       0.674855E-001  0.628789E-003  0.543708E-009  0.320355E-009
  0.948540       0.717721       0.320724       0.245976E-001  0.988581       0.988583       0.965630       0.972715       0.972718       0.960973     
  0.960975       0.202207E-009  0.198451E-009  0.322063E-009  0.885595       0.695666       0.475446       0.221200       0.140462E-001  0.647207E-005
  0.370469E-005  0.985994       0.943086       0.830053       0.557299       0.994680       0.994681       0.990834       0.983720       0.983722     
  0.980500       0.980501       0.180194E-005  0.200570E-005  0.250659E-005  0.795631       0.488910       0.223513       0.485213E-001  0.233758E-003
  0.905826E-011  0.227197E-011  0.952153       0.746742       0.367406       0.361836E-001  0.987839       0.987841       0.967117       0.968590     
  0.968594       0.957757       0.957759       0.238415E-011  0.295174E-011  0.621681E-011
 
  0.835998       0.557757       0.297324       0.864095E-001  0.137189E-002  0.201390E-007  0.609357E-008  0.926184       0.597735       0.172751     
  0.370356E-002  0.986560       0.986563       0.950974       0.973443       0.973446       0.956169       0.956169       0.164345E-007  0.197826E-007
  0.123179E-007  0.823044       0.526892       0.259298       0.666815E-001  0.707326E-003  0.369672E-008  0.209491E-008  0.934381       0.637296     
  0.213016       0.663957E-002  0.986885       0.986889       0.954734       0.971964       0.971967       0.956995       0.956996       0.256148E-008
  0.273890E-008  0.323786E-008  0.828083       0.558201       0.303087       0.901138E-001  0.138563E-002  0.233060E-007  0.160964E-007  0.967594     
  0.834468       0.551435       0.165122       0.990706       0.990708       0.979878       0.974378       0.974381       0.967178       0.967180     
  0.834115E-008  0.941621E-008  0.148788E-007  0.799210       0.486807       0.220025       0.488815E-001  0.303394E-003  0.273881E-009  0.319363E-009
  0.925457       0.605032       0.184595       0.550468E-002  0.985379       0.985382       0.954417       0.967827       0.967830       0.950558     
  0.950559       0.201552E-009  0.197809E-009  0.321021E-009  0.869805       0.659418       0.432039       0.184226       0.919547E-002  0.471477E-005
  0.370290E-005  0.981409       0.915897       0.756245       0.437160       0.993675       0.993675       0.988628       0.981226       0.981228     
  0.976995       0.976997       0.180103E-005  0.200469E-005  0.250533E-005  0.769125       0.439893       0.184485       0.336683E-001  0.101878E-003
  0.429873E-011  0.226684E-011  0.934515       0.656577       0.242061       0.117466E-001  0.985035       0.985038       0.958415       0.963498     
  0.963502       0.948598       0.948600       0.237854E-011  0.294479E-011  0.620217E-011
 
  0.815172       0.514304       0.256520       0.655024E-001  0.750583E-003  0.158818E-007  0.606908E-008  0.898153       0.484140       0.889356E-001
  0.779453E-003  0.982878       0.982883       0.937797       0.968779       0.968783       0.944571       0.944572       0.163655E-007  0.196995E-007
  0.122662E-007  0.800645       0.482250       0.220762       0.492937E-001  0.364616E-003  0.300512E-008  0.208740E-008  0.908783       0.526282     
  0.116346       0.152251E-002  0.983416       0.983420       0.942824       0.967172       0.967176       0.945994       0.945995       0.255188E-008
  0.272864E-008  0.322573E-008  0.806684       0.515254       0.262637       0.688372E-001  0.758336E-003  0.214561E-007  0.160741E-007  0.956246     
  0.770766       0.429278       0.877090E-001  0.988806       0.988808       0.974892       0.970550       0.970554       0.960781       0.960783     
  0.832908E-008  0.940258E-008  0.148573E-007  0.773831       0.440645       0.183953       0.349573E-001  0.144375E-003  0.229409E-009  0.318010E-009
  0.895356       0.482566       0.907045E-001  0.957819E-003  0.981436       0.981441       0.941330       0.962228       0.962232       0.937565     
  0.937566       0.200660E-009  0.196933E-009  0.319600E-009  0.853256       0.622801       0.390428       0.152263       0.597886E-002  0.448750E-005
  0.370042E-005  0.975361       0.880057       0.668241       0.322920       0.992503       0.992504       0.986026       0.978514       0.978516     
  0.972937       0.972939       0.179977E-005  0.200329E-005  0.250358E-005  0.741617       0.392911       0.150626       0.230261E-001  0.435954E-004
  0.368062E-011  0.225994E-011  0.911807       0.554159       0.141610       0.310933E-002  0.981673       0.981676       0.948283       0.957838     
  0.957843       0.937599       0.937601       0.237097E-011  0.293542E-011  0.618242E-011
 
  0.793096       0.471783       0.219765       0.492461E-001  0.409226E-003  0.157991E-007  0.603528E-008  0.861196       0.364343       0.377771E-001
  0.951271E-004  0.978181       0.978188       0.922022       0.963287       0.963290       0.929660       0.929660       0.162703E-007  0.195849E-007
  0.121948E-007  0.777006       0.438933       0.186537       0.361179E-001  0.186848E-003  0.299084E-008  0.207679E-008  0.874229       0.404160     
  0.523250E-001  0.213521E-003  0.978963       0.978969       0.928329       0.961557       0.961561       0.931740       0.931740       0.253834E-008
  0.271416E-008  0.320861E-008  0.784546       0.473448       0.226107       0.521657E-001  0.412990E-003  0.214182E-007  0.160437E-007  0.941462     
  0.693500       0.311102       0.408351E-001  0.986553       0.986555       0.969031       0.966352       0.966355       0.953180       0.953182     
  0.831264E-008  0.938402E-008  0.148280E-007  0.747361       0.396443       0.152526       0.247559E-001  0.679842E-004  0.228216E-009  0.316241E-009
  0.857790       0.361554       0.380099E-001  0.117458E-003  0.976675       0.976682       0.926472       0.955871       0.955876       0.921729     
  0.921729       0.199494E-009  0.195788E-009  0.317743E-009  0.836069       0.586334       0.351191       0.125119       0.387489E-002  0.448380E-005
  0.369716E-005  0.967815       0.836487       0.573394       0.226522       0.991173       0.991174       0.983100       0.975592       0.975595     
  0.968322       0.968324       0.179811E-005  0.200144E-005  0.250127E-005  0.713386       0.348674       0.121859       0.155747E-001  0.183353E-004
  0.366682E-011  0.225087E-011  0.883284       0.445759       0.731326E-001  0.629164E-003  0.977664       0.977669       0.936659       0.951573     
  0.951578       0.924490       0.924492       0.236103E-011  0.292311E-011  0.615651E-011
 
  0.769409       0.430485       0.187064       0.367879E-001  0.223309E-003  0.156770E-007  0.598542E-008  0.809862       0.243422       0.112750E-001
  0.954317E-005  0.971931       0.971940       0.902360       0.956493       0.956497       0.909172       0.909171       0.161298E-007  0.194158E-007
  0.120896E-007  0.752312       0.397555       0.156658       0.263052E-001  0.956887E-004  0.297173E-008  0.206260E-008  0.830369       0.286783     
  0.188650E-001  0.279834E-004  0.973496       0.973504       0.911597       0.955054       0.955058       0.913869       0.913868       0.252021E-008
  0.269478E-008  0.318570E-008  0.761880       0.433372       0.193669       0.393244E-001  0.224924E-003  0.213686E-007  0.160040E-007  0.922909     
  0.606602       0.208463       0.166951E-001  0.983937       0.983940       0.962374       0.961778       0.961783       0.944246       0.944248     
  0.829114E-008  0.935975E-008  0.147896E-007  0.720101       0.354825       0.125640       0.174176E-001  0.318253E-004  0.226718E-009  0.314020E-009
  0.813058       0.254045       0.136742E-001  0.163256E-004  0.971111       0.971119       0.910174       0.948747       0.948752       0.902940     
  0.902940       0.198030E-009  0.194352E-009  0.315412E-009  0.818400       0.550527       0.314765       0.102422       0.251272E-002  0.447929E-005
  0.369318E-005  0.958897       0.787071       0.478433       0.151951       0.989706       0.989707       0.979958       0.972481       0.972485     
  0.963192       0.963194       0.179609E-005  0.199919E-005  0.249846E-005  0.684758       0.307737       0.978848E-001  0.104587E-001  0.760664E-005
  0.364933E-011  0.223939E-011  0.848902       0.341085       0.333870E-001  0.124364E-003  0.973016       0.973022       0.923757       0.944706     
  0.944712       0.909151       0.909152       0.234845E-011  0.290754E-011  0.612371E-011
 
  0.743845       0.390748       0.158342       0.273658E-001  0.122397E-003  0.155008E-007  0.591347E-008  0.741720       0.140614       0.238426E-002
  0.502577E-006  0.963741       0.963752       0.878466       0.947979       0.947984       0.881346       0.881343       0.159272E-007  0.191720E-007
  0.119377E-007  0.726698       0.358570       0.130963       0.190996E-001  0.492595E-004  0.294673E-008  0.204405E-008  0.776746       0.186080     
  0.551800E-002  0.253065E-005  0.966865       0.966875       0.892576       0.947531       0.947536       0.891811       0.891810       0.249653E-008
  0.266945E-008  0.315576E-008  0.738917       0.395525       0.165327       0.295803E-001  0.123149E-003  0.213081E-007  0.159555E-007  0.901034     
  0.517046       0.132015       0.632002E-002  0.981003       0.981007       0.955166       0.956867       0.956871       0.934084       0.934085     
  0.826492E-008  0.933015E-008  0.147428E-007  0.692373       0.316263       0.103018       0.122181E-001  0.149297E-004  0.224895E-009  0.311321E-009
  0.761805       0.166497       0.411380E-002  0.161793E-005  0.964736       0.964746       0.892615       0.940856       0.940862       0.881169     
  0.881168       0.196252E-009  0.192606E-009  0.312579E-009  0.800422       0.515848       0.281436       0.837036E-001  0.163647E-002  0.447403E-005
  0.368854E-005  0.948749       0.734919       0.393507       0.101051       0.988122       0.988124       0.976684       0.969205       0.969209     
  0.957575       0.957577       0.179373E-005  0.199657E-005  0.249518E-005  0.656070       0.270470       0.782487E-001  0.700145E-002  0.314704E-005
  0.362781E-011  0.222527E-011  0.808735       0.246863       0.132960E-001  0.191006E-004  0.967698       0.967706       0.909627       0.937242     
  0.937248       0.891490       0.891491       0.233298E-011  0.288839E-011  0.608337E-011
 
  0.716171       0.352856       0.133408       0.203173E-001  0.676318E-004  0.152564E-007  0.581373E-008  0.656054       0.675974E-001  0.373288E-003
  0.106117E-008  0.953316       0.953332       0.850459       0.937326       0.937331       0.844581       0.844576       0.156465E-007  0.188341E-007
  0.117273E-007  0.700312       0.322316       0.109164       0.138680E-001  0.256437E-004  0.291483E-008  0.202039E-008  0.713305       0.108851     
  0.136107E-002  0.365477E-007  0.958966       0.958979       0.871371       0.938858       0.938864       0.865027       0.865024       0.246634E-008
  0.263717E-008  0.311759E-008  0.715943       0.360310       0.140923       0.222742E-001  0.681378E-004  0.212381E-007  0.158994E-007  0.876510     
  0.431130       0.795285E-001  0.214846E-002  0.977827       0.977831       0.947652       0.951687       0.951692       0.922907       0.922909     
  0.823456E-008  0.929588E-008  0.146887E-007  0.664552       0.281088       0.842693E-001  0.857786E-002  0.707475E-005  0.222748E-009  0.308141E-009
  0.705389       0.102099       0.112780E-002  0.530951E-007  0.957627       0.957639       0.874188       0.932252       0.932259       0.856617     
  0.856614       0.194158E-009  0.190551E-009  0.309243E-009  0.782378       0.482742       0.251363       0.684465E-001  0.107450E-002  0.446818E-005
  0.368338E-005  0.937691       0.681849       0.320035       0.669034E-001  0.986453       0.986455       0.973336       0.965813       0.965817     
  0.951608       0.951610       0.179111E-005  0.199365E-005  0.249154E-005  0.627690       0.237072       0.624124E-001  0.469314E-002  0.131236E-005
  0.360217E-011  0.220845E-011  0.763554       0.169213       0.474352E-002  0.146088E-005  0.961766       0.961776       0.894566       0.929234     
  0.929241       0.871624       0.871624       0.231456E-011  0.286558E-011  0.603533E-011
 
  0.686993       0.317406       0.112111       0.151064E-001  0.378910E-004  0.149491E-007  0.568846E-008  0.560612       0.274322E-001  0.458923E-004
  0.128065E-010  0.941012       0.941031       0.819912       0.924718       0.924724       0.800258       0.800250       0.152943E-007  0.184101E-007
  0.114633E-007  0.673393       0.289053       0.909081E-001  0.101041E-001  0.135808E-004  0.287557E-008  0.199128E-008  0.641484       0.569616E-001
  0.273125E-003  0.129999E-008  0.949805       0.949820       0.848317       0.928995       0.929001       0.833413       0.833408       0.242921E-008
  0.259747E-008  0.307067E-008  0.693317       0.328030       0.120186       0.168461E-001  0.383180E-004  0.211598E-007  0.158367E-007  0.850058     
  0.353244       0.464454E-001  0.733824E-003  0.974483       0.974489       0.940043       0.946330       0.946336       0.910985       0.910986     
  0.820064E-008  0.925759E-008  0.146282E-007  0.637046       0.249487       0.689418E-001  0.605183E-002  0.341651E-005  0.220294E-009  0.304511E-009
  0.645829       0.591825E-001  0.289716E-003  0.298576E-008  0.949886       0.949900       0.855271       0.923037       0.923044       0.829724     
  0.829720       0.191768E-009  0.188206E-009  0.305437E-009  0.764570       0.451612       0.224593       0.561378E-001  0.714247E-003  0.446199E-005
  0.367792E-005  0.926304       0.630545       0.259268       0.446730E-001  0.984781       0.984783       0.970107       0.962391       0.962395     
  0.945547       0.945549       0.178834E-005  0.199056E-005  0.248768E-005  0.599989       0.207585       0.498114E-001  0.316458E-002  0.558456E-006
  0.357260E-011  0.218906E-011  0.714557       0.110470       0.156146E-002  0.144274E-006  0.955282       0.955294       0.878841       0.920764     
  0.920772       0.849828       0.849827       0.229333E-011  0.283930E-011  0.597999E-011
 
  0.657772       0.285201       0.943078E-001  0.113022E-001  0.216292E-004  0.146083E-007  0.554978E-008  0.469361       0.101605E-001  0.517441E-005
  0.671471E-012  0.927828       0.927851       0.789501       0.911074       0.911081       0.753165       0.753155       0.149047E-007  0.179412E-007
  0.111713E-007  0.646464       0.259032       0.758250E-001  0.741593E-002  0.733404E-005  0.283011E-008  0.195762E-008  0.566535       0.272376E-001
  0.484974E-004  0.892243E-010  0.939711       0.939730       0.824512       0.918168       0.918175       0.798245       0.798239       0.238631E-008
  0.255160E-008  0.301644E-008  0.671378       0.298863       0.102777       0.128398E-001  0.219777E-004  0.210753E-007  0.157691E-007  0.822512     
  0.285928       0.267677E-001  0.266031E-003  0.971049       0.971055       0.932509       0.940891       0.940897       0.898591       0.898592     
  0.816405E-008  0.921628E-008  0.145629E-007  0.610357       0.221543       0.565689E-001  0.430930E-002  0.168663E-005  0.217620E-009  0.300557E-009
  0.586209       0.328854E-001  0.716540E-004  0.389532E-009  0.941765       0.941782       0.836507       0.913439       0.913446       0.801484     
  0.801478       0.189166E-009  0.185653E-009  0.301294E-009  0.747241       0.422746       0.201057       0.462918E-001  0.482676E-003  0.445555E-005
  0.367225E-005  0.914742       0.582044       0.210200       0.303238E-001  0.983115       0.983118       0.966969       0.958983       0.958987     
  0.939455       0.939457       0.178545E-005  0.198735E-005  0.248367E-005  0.573422       0.181944       0.399049E-001  0.215711E-002  0.243156E-006
  0.354022E-011  0.216785E-011  0.664347       0.696812E-001  0.496540E-003  0.213961E-007  0.948471       0.948485       0.863077       0.912042     
  0.912050       0.826921       0.826920       0.227011E-011  0.281055E-011  0.591944E-011
 
  0.629442       0.256568       0.796571E-001  0.854568E-002  0.126468E-004  0.142535E-007  0.540562E-008  0.388485       0.364234E-002  0.445381E-006
  0.532909E-014  0.914378       0.914406       0.760492       0.897001       0.897008       0.706182       0.706169       0.145002E-007  0.174543E-007
  0.108682E-007  0.620071       0.232369       0.635128E-001  0.550466E-002  0.405820E-005  0.277999E-008  0.192054E-008  0.493014       0.122414E-001
  0.688767E-005  0.197497E-011  0.929029       0.929051       0.800800       0.906660       0.906667       0.760914       0.760905       0.233909E-008
  0.250111E-008  0.295675E-008  0.650447       0.272881       0.883218E-001  0.989588E-002  0.129206E-004  0.209867E-007  0.156982E-007  0.794662     
  0.229992       0.153964E-001  0.954250E-004  0.967598       0.967605       0.925194       0.935472       0.935479       0.886013       0.886014     
  0.812570E-008  0.917299E-008  0.144945E-007  0.584914       0.197192       0.466874E-001  0.311036E-002  0.856244E-006  0.214802E-009  0.296395E-009
  0.528883       0.178455E-001  0.157838E-004  0.209520E-010  0.933488       0.933508       0.818333       0.903676       0.903684       0.772767     
  0.772760       0.186430E-009  0.182967E-009  0.296935E-009  0.730620       0.396352       0.180610       0.384724E-001  0.332949E-003  0.444904E-005
  0.366651E-005  0.903270       0.537749       0.171874       0.211206E-001  0.981479       0.981482       0.963982       0.955642       0.955647     
  0.933451       0.933453       0.178254E-005  0.198411E-005  0.247961E-005  0.548367       0.159958       0.321925E-001  0.149365E-002  0.109140E-006
  0.350606E-011  0.214548E-011  0.614983       0.430902E-001  0.148334E-003  0.209686E-008  0.941534       0.941549       0.847693       0.903267     
  0.903275       0.803628       0.803625       0.224565E-011  0.278026E-011  0.585565E-011
 
  0.602365       0.231439       0.677154E-001  0.655265E-002  0.755333E-005  0.138894E-007  0.525795E-008  0.318624       0.127128E-002  0.535428E-007
  0.429965E-014  0.900887       0.900919       0.733083       0.882710       0.882717       0.660155       0.660140       0.140864E-007  0.169561E-007
  0.105580E-007  0.594718       0.209048       0.535684E-001  0.414842E-002  0.228962E-005  0.272666E-008  0.188114E-008  0.424423       0.531936E-002
  0.115471E-005  0.168521E-011  0.918086       0.918112       0.777796       0.894768       0.894776       0.722760       0.722750       0.228896E-008
  0.244750E-008  0.289337E-008  0.630796       0.250057       0.764412E-001  0.773801E-002  0.777086E-005  0.208962E-007  0.156258E-007  0.767187     
  0.184551       0.891575E-002  0.388360E-004  0.964199       0.964208       0.918208       0.930161       0.930168       0.873479       0.873479     
  0.808653E-008  0.912877E-008  0.144246E-007  0.560951       0.176221       0.388576E-001  0.228458E-002  0.443185E-006  0.211859E-009  0.292052E-009
  0.474530       0.952469E-002  0.368332E-005  0.185960E-010  0.925123       0.925145       0.800786       0.893828       0.893837       0.743801     
  0.743793       0.183576E-009  0.180166E-009  0.292389E-009  0.714881       0.372540       0.163052       0.323010E-001  0.235310E-003  0.444285E-005
  0.366105E-005  0.892397       0.498855       0.142547       0.152162E-001  0.979924       0.979927       0.961239       0.952422       0.952427     
  0.927680       0.927682       0.177977E-005  0.198102E-005  0.247575E-005  0.525139       0.141353       0.262364E-001  0.105564E-002  0.497873E-007
  0.347102E-011  0.212256E-011  0.568189       0.265768E-001  0.471740E-004  0.886628E-009  0.934655       0.934673       0.832999       0.894629     
  0.894639       0.780588       0.780584       0.222058E-011  0.274923E-011  0.579029E-011
 
  0.576346       0.209458       0.580061E-001  0.510681E-002  0.461131E-005  0.135052E-007  0.510239E-008  0.257164       0.422161E-003  0.580844E-008
  0.151449E-015  0.886999       0.887035       0.706319       0.867879       0.867887       0.613869       0.613852       0.136510E-007  0.164320E-007
  0.102316E-007  0.570817       0.188948       0.456136E-001  0.318606E-002  0.131871E-005  0.267160E-008  0.184052E-008  0.362330       0.225731E-002
  0.178787E-006  0.785882E-013  0.907123       0.907151       0.755849       0.882760       0.882768       0.684812       0.684799       0.223731E-008
  0.239228E-008  0.282810E-008  0.612675       0.230298       0.667758E-001  0.615865E-002  0.479056E-005  0.208048E-007  0.155527E-007  0.740468     
  0.148356       0.523414E-002  0.151902E-004  0.960902       0.960911       0.911612       0.925050       0.925058       0.861217       0.861217     
  0.804703E-008  0.908418E-008  0.143542E-007  0.538706       0.158386       0.327005E-001  0.171435E-002  0.233780E-006  0.208823E-009  0.287576E-009
  0.423623       0.501106E-002  0.853685E-006  0.150586E-011  0.916767       0.916791       0.783957       0.884025       0.884034       0.714940     
  0.714930       0.180637E-009  0.177281E-009  0.287708E-009  0.700251       0.351398       0.148164       0.274602E-001  0.171003E-003  0.443711E-005
  0.365599E-005  0.882563       0.466086       0.120827       0.114825E-001  0.978504       0.978508       0.958836       0.949399       0.949404     
  0.922360       0.922362       0.177720E-005  0.197816E-005  0.247218E-005  0.503925       0.125800       0.216655E-001  0.764945E-003  0.230305E-007
  0.343581E-011  0.209954E-011  0.524107       0.163597E-001  0.149170E-004  0.114171E-009  0.927908       0.927928       0.819080       0.886244     
  0.886253       0.758067       0.758063       0.219543E-011  0.271809E-011  0.572469E-011
 
  0.552962       0.190973       0.503203E-001  0.406951E-002  0.294307E-005  0.131483E-007  0.495815E-008  0.209581       0.150326E-003  0.879581E-009
  0.567897E-018  0.874251       0.874290       0.682931       0.854052       0.854061       0.572797       0.572779       0.132478E-007  0.159467E-007
  0.992943E-008  0.548911       0.171952       0.393267E-001  0.250356E-002  0.797161E-006  0.261728E-008  0.180049E-008  0.309057       0.974651E-003
  0.316075E-007  0.111792E-014  0.896575       0.896606       0.735639       0.871093       0.871102       0.648790       0.648776       0.218647E-008
  0.233792E-008  0.276383E-008  0.596329       0.213486       0.590045E-001  0.500477E-002  0.308815E-005  0.207163E-007  0.154819E-007  0.715450     
  0.120326       0.317131E-002  0.624214E-005  0.957803       0.957813       0.905567       0.920260       0.920268       0.849599       0.849599     
  0.800877E-008  0.904099E-008  0.142859E-007  0.518560       0.143474       0.279071E-001  0.131966E-002  0.130425E-006  0.205829E-009  0.283166E-009
  0.378230       0.267306E-002  0.221613E-006  0.686041E-013  0.908733       0.908760       0.768382       0.874593       0.874603       0.687384     
  0.687373       0.177743E-009  0.174441E-009  0.283099E-009  0.686941       0.332969       0.135723       0.236908E-001  0.128246E-003  0.443196E-005
  0.365146E-005  0.873797       0.438650       0.104530       0.902165E-002  0.977224       0.977228       0.956739       0.946614       0.946619     
  0.917522       0.917524       0.177490E-005  0.197560E-005  0.246898E-005  0.484990       0.112994       0.181844E-001  0.570792E-003  0.113848E-007
  0.340179E-011  0.207731E-011  0.484499       0.102768E-001  0.514063E-005  0.128827E-010  0.921536       0.921557       0.806362       0.878355     
  0.878365       0.736921       0.736915       0.217115E-011  0.268803E-011  0.566138E-011
 
  0.532198       0.175619       0.442856E-001  0.332450E-002  0.197016E-005  0.128165E-007  0.482432E-008  0.172489       0.576527E-004  0.128889E-009
  0.174120E-019  0.862534       0.862576       0.662328       0.841210       0.841219       0.536284       0.536264       0.128742E-007  0.154969E-007
  0.964940E-008  0.529542       0.157915       0.344328E-001  0.202063E-002  0.507932E-006  0.256646E-008  0.176309E-008  0.265597       0.444575E-003
  0.595874E-008  0.564669E-016  0.886845       0.886879       0.717683       0.860264       0.860273       0.616298       0.616282       0.213903E-008
  0.228719E-008  0.270385E-008  0.581969       0.199470       0.528457E-001  0.416476E-002  0.208918E-005  0.206337E-007  0.154160E-007  0.692821     
  0.991459E-001  0.201186E-002  0.287322E-005  0.954983       0.954993       0.900183       0.915909       0.915917       0.838967       0.838966     
  0.797313E-008  0.900075E-008  0.142224E-007  0.500836       0.131254       0.242203E-001  0.104612E-002  0.772557E-007  0.203009E-009  0.279017E-009
  0.339442       0.148321E-002  0.608468E-007  0.677066E-014  0.901313       0.901342       0.754455       0.865861       0.865871       0.662178     
  0.662166       0.175021E-009  0.171770E-009  0.278764E-009  0.675160       0.317269       0.125512       0.207854E-001  0.995989E-004  0.442745E-005
  0.364749E-005  0.866172       0.416168       0.924006E-001  0.737726E-002  0.976098       0.976102       0.954945       0.944121       0.944128     
  0.913249       0.913251       0.177288E-005  0.197336E-005  0.246617E-005  0.468520       0.102636       0.155576E-001  0.440391E-003  0.603347E-008
  0.337023E-011  0.205670E-011  0.450119       0.668060E-002  0.192504E-005  0.221417E-011  0.915721       0.915744       0.795085       0.871173     
  0.871184       0.717763       0.717756       0.214864E-011  0.266017E-011  0.560271E-011
 
  0.514416       0.163209       0.396396E-001  0.279338E-002  0.139692E-005  0.125218E-007  0.470565E-008  0.144536       0.245197E-004  0.239873E-010
  0.818347E-021  0.852209       0.852253       0.644813       0.829783       0.829792       0.505158       0.505137       0.125433E-007  0.150986E-007
  0.940138E-008  0.512862       0.146581       0.306845E-001  0.168027E-002  0.345135E-006  0.252045E-008  0.172928E-008  0.230982       0.219058E-003
  0.136350E-008  0.407191E-017  0.878206       0.878242       0.702279       0.850530       0.850540       0.587835       0.587818       0.209617E-008
  0.224136E-008  0.264968E-008  0.569765       0.188092       0.480601E-001  0.355818E-002  0.149656E-005  0.205601E-007  0.153571E-007  0.673174     
  0.834951E-001  0.135081E-002  0.146978E-005  0.952514       0.952525       0.895555       0.912104       0.912112       0.829624       0.829623     
  0.794133E-008  0.896486E-008  0.141656E-007  0.485767       0.121487       0.214312E-001  0.856994E-003  0.493391E-007  0.200473E-009  0.275289E-009
  0.307618       0.874713E-003  0.194192E-007  0.888786E-015  0.894746       0.894776       0.742466       0.858108       0.858118       0.640113     
  0.640101       0.172578E-009  0.169373E-009  0.274873E-009  0.665047       0.304256       0.117324       0.185791E-001  0.803414E-004  0.442358E-005
  0.364407E-005  0.859641       0.397867       0.832934E-001  0.624535E-002  0.975132       0.975136       0.953439       0.941956       0.941963     
  0.909557       0.909559       0.177115E-005  0.197143E-005  0.246376E-005  0.454648       0.944474E-001  0.136026E-001  0.352630E-003  0.350003E-008
  0.334218E-011  0.203840E-011  0.421408       0.455942E-002  0.814094E-006  0.480432E-012  0.910624       0.910648       0.785437       0.864884     
  0.864895       0.701097       0.701090       0.212867E-011  0.263543E-011  0.555061E-011
 
  0.499906       0.153555       0.361689E-001  0.242112E-002  0.105595E-005  0.122744E-007  0.460619E-008  0.124259       0.119161E-004  0.595939E-011
  0.192875E-021  0.843584       0.843631       0.630576       0.820166       0.820176       0.479958       0.479936       0.122662E-007  0.147651E-007
  0.919374E-008  0.499237       0.137785       0.278985E-001  0.144410E-002  0.252056E-006  0.248146E-008  0.170066E-008  0.204832       0.120178E-003
  0.399130E-009  0.463069E-018  0.870961       0.870998       0.689681       0.842305       0.842314       0.564409       0.564391       0.205991E-008
  0.220259E-008  0.260385E-008  0.559838       0.179192       0.444524E-001  0.312799E-002  0.114142E-005  0.204984E-007  0.153078E-007  0.657097     
  0.723538E-001  0.972915E-003  0.851499E-006  0.950476       0.950487       0.891798       0.908946       0.908955       0.821875       0.821873     
  0.791471E-008  0.893481E-008  0.141181E-007  0.473451       0.113935       0.193740E-001  0.727625E-003  0.342826E-007  0.198303E-009  0.272101E-009
  0.282488       0.557886E-003  0.744900E-008  0.164765E-015  0.889230       0.889261       0.732637       0.851540       0.851551       0.621645     
  0.621631       0.170490E-009  0.167323E-009  0.271547E-009  0.656807       0.293929       0.110996       0.169485E-001  0.674734E-004  0.442048E-005
  0.364135E-005  0.854447       0.383888       0.767706E-001  0.548740E-002  0.974351       0.974355       0.952238       0.940183       0.940189     
  0.906572       0.906575       0.176976E-005  0.196989E-005  0.246184E-005  0.443511       0.882000E-001  0.121836E-001  0.294019E-003  0.224950E-008
  0.331950E-011  0.202361E-011  0.399361       0.334682E-002  0.409058E-006  0.143061E-012  0.906523       0.906548       0.777857       0.859760     
  0.859771       0.687779       0.687771       0.211253E-011  0.261545E-011  0.550853E-011
 
 )
